HCHO + HV = H2 + CO
! From IUPAC Subcommittee on Gas Kinetic Data Evaluation
! Data Sheet P1, updated 16th May 2002
! Website: http://www.iupac-kinetic.ch.cam.ac.uk/
! Quantum yields for H2 + CO production at 298 K
!
! These are 1 nm bins centered on the wavelength.  With
! 1 nm resolution they can be used as point values.
!
0.28400  4.2600E-20  2.4535E-01
0.28500  4.0500E-20  2.3875E-01
0.28600  2.1000E-20  2.3215E-01
0.28700  1.1500E-20  2.2555E-01
0.28800  3.1700E-20  2.1895E-01
0.28900  3.2200E-20  2.1760E-01
0.29000  1.1700E-20  2.3200E-01
0.29100  1.8400E-20  2.4640E-01
0.29200  7.9700E-21  2.6080E-01
0.29300  3.1300E-20  2.7520E-01
0.29400  7.1500E-20  2.8910E-01
0.29500  4.0500E-20  3.0150E-01
0.29600  2.4700E-20  3.1390E-01
0.29700  1.3700E-20  3.2630E-01
0.29800  4.2200E-20  3.3870E-01
0.29900  3.1700E-20  3.4070E-01
0.30000  9.6400E-21  3.1150E-01
0.30100  1.6200E-20  2.8230E-01
0.30200  8.5400E-21  2.5850E-01
0.30300  3.0200E-20  2.3650E-01
0.30400  7.2200E-20  2.2960E-01
0.30500  4.7500E-20  2.6800E-01
0.30600  4.2900E-20  3.0640E-01
0.30700  1.7800E-20  3.0070E-01
0.30800  1.3800E-20  2.8030E-01
0.30900  3.2500E-20  2.6810E-01
0.31000  1.7400E-20  2.8050E-01
0.31100  4.6200E-21  2.9290E-01
0.31200  1.1900E-20  2.9270E-01
0.31300  9.0600E-21  2.8830E-01
0.31400  5.6400E-20  2.8920E-01
0.31500  5.5700E-20  3.0600E-01
0.31600  2.5600E-20  3.2280E-01
0.31700  5.7800E-20  3.2850E-01
0.31800  3.1500E-20  3.3050E-01
0.31900  9.7800E-21  3.3250E-01
0.32000  1.1900E-20  3.3450E-01
0.32100  1.6000E-20  3.3650E-01
0.32200  7.2200E-21  3.5425E-01
0.32300  3.2800E-21  3.7725E-01
0.32400  8.5800E-21  4.0025E-01
0.32500  1.5800E-20  4.2325E-01
0.32600  6.8800E-20  4.4625E-01
0.32700  4.3700E-20  4.8950E-01
0.32800  1.2200E-20  5.3950E-01
0.32900  3.1200E-20  5.6170E-01
0.33000  3.8700E-20  5.0050E-01
0.33100  1.4100E-20  4.3930E-01
0.33200  3.4700E-21  4.4350E-01
0.33300  2.1400E-21  4.6950E-01
0.33400  1.5900E-21  5.0280E-01
0.33500  9.6700E-22  5.5800E-01
0.33600  1.2600E-21  6.1320E-01
0.33700  3.8300E-21  6.0660E-01
0.33800  1.9200E-20  5.7940E-01
0.33900  5.3800E-20  5.5920E-01
0.34000  3.1500E-20  5.6000E-01
0.34100  9.7800E-21  5.2500E-01
0.34200  5.0900E-21  4.9000E-01
0.34300  1.9200E-20  4.5500E-01
0.34400  1.2700E-20  4.2000E-01
0.34500  4.3700E-21  3.8500E-01
0.34600  1.1900E-21  3.5000E-01
0.34700  4.4100E-22  3.1500E-01
0.34800  7.5400E-22  2.8000E-01
0.34900  3.7900E-22  2.4500E-01
0.35000  3.6200E-22  2.1000E-01
0.35100  8.9300E-22  1.9200E-01
0.35200  7.3000E-21  1.7400E-01
0.35300  2.2800E-20  1.5600E-01
0.35400  1.6400E-20  1.3800E-01
0.35500  6.9600E-21  1.2000E-01
0.35600  1.4800E-21  1.0200E-01
0.35700  3.4500E-22  8.4000E-02
0.35800  1.8600E-22  6.6000E-02
0.35900  1.1100E-22  4.8000E-02
0.36000  8.7000E-23  3.0000E-02
0.36100  0.0000E-00  0.0000E+00
