ISPD photolysis = average of IUPAC MACR and MVK
! For rxn 146
! 1st column: wavelengths               [micrometer] 
! 2nd column: absorption cross sections [cm2/molecule]
! 3rd column (optional): quantum yields [-]
0.280   1.170E-20 0.05
0.281   1.250E-20 0.05
0.282   1.340E-20 0.05
0.283   1.430E-20 0.05
0.284   1.525E-20 0.05
0.285   1.630E-20 0.05
0.286   1.735E-20 0.05
0.287   1.850E-20 0.05
0.288   1.970E-20 0.05
0.289   2.095E-20 0.05
0.290   2.230E-20 0.05
0.291   2.355E-20 0.05
0.292   2.475E-20 0.05
0.293   2.605E-20 0.05
0.294   2.725E-20 0.05
0.295   2.880E-20 0.05
0.296   3.045E-20 0.05
0.297   3.190E-20 0.05
0.298   3.345E-20 0.05
0.299   3.480E-20 0.05
0.300   3.655E-20 0.05
0.301   3.825E-20 0.05
0.302   3.980E-20 0.05
0.303   4.130E-20 0.05
0.304   4.275E-20 0.05
0.305   4.425E-20 0.05
0.306   4.610E-20 0.05
0.307   4.770E-20 0.05
0.308   4.920E-20 0.05
0.309   5.055E-20 0.05
0.310   5.180E-20 0.05
0.311   5.355E-20 0.05
0.312   5.540E-20 0.05
0.313   5.685E-20 0.05
0.314   5.815E-20 0.05
0.315   5.920E-20 0.05
0.316   6.075E-20 0.05
0.317   6.230E-20 0.05
0.318   6.365E-20 0.05
0.319   6.455E-20 0.05
0.320   6.485E-20 0.05
0.321   6.470E-20 0.05
0.322   6.520E-20 0.05
0.323   6.595E-20 0.05
0.324   6.730E-20 0.05
0.325   6.845E-20 0.05
0.326   6.875E-20 0.05
0.327   6.885E-20 0.05
0.328   6.995E-20 0.05
0.329   7.150E-20 0.05
0.330   7.215E-20 0.05
0.331   7.230E-20 0.05
0.332   7.145E-20 0.05
0.333   6.935E-20 0.05
0.334   6.725E-20 0.05
0.335   6.510E-20 0.05
0.336   6.410E-20 0.05
0.337   6.475E-20 0.05
0.338   6.470E-20 0.05
0.339   6.420E-20 0.05
0.340   6.340E-20 0.05
0.341   6.220E-20 0.05
0.342   6.165E-20 0.05
0.343   6.465E-20 0.05
0.344   6.545E-20 0.05
0.345   6.380E-20 0.05
0.346   6.125E-20 0.05
0.347   5.855E-20 0.05
0.348   5.495E-20 0.05
0.349   5.010E-20 0.05
0.350   4.680E-20 0.05
0.351   4.395E-20 0.05
0.352   4.305E-20 0.05
0.353   4.440E-20 0.05
0.354   4.315E-20 0.05
0.355   4.145E-20 0.05
0.356   3.825E-20 0.05
0.357   3.735E-20 0.05
0.358   3.675E-20 0.05
0.359   3.850E-20 0.05
0.360   4.365E-20 0.05
0.361   3.940E-20 0.05
0.362   3.550E-20 0.05
0.363   3.110E-20 0.05
0.364   2.985E-20 0.05
0.365   2.680E-20 0.05
0.366   2.345E-20 0.05
0.367   2.060E-20 0.05
0.368   1.800E-20 0.05
0.369   1.660E-20 0.05
0.370   1.650E-20 0.05
0.371   1.705E-20 0.05
0.372   1.555E-20 0.05
0.373   1.455E-20 0.05
0.374   1.235E-20 0.05
0.375   1.144E-20 0.05
0.376   1.130E-20 0.05
0.377   1.155E-20 0.05
0.378   1.275E-20 0.05
0.379   1.690E-20 0.05
0.380   1.175E-20 0.05
0.381   9.825E-21 0.05
0.382   7.335E-21 0.05
0.383   6.670E-21 0.05
0.384   6.465E-21 0.05
0.385   5.440E-21 0.05
0.386   4.415E-21 0.05
0.387   3.695E-21 0.05
0.388   3.140E-21 0.05
0.389   2.785E-21 0.05
0.390   2.455E-21 0.05
0.391   2.330E-21 0.05
0.392   2.260E-21 0.05
0.393   2.140E-21 0.05
0.394   1.950E-21 0.05
0.395   1.650E-21 0.05
