HCHO + HV = H + HCO
! From IUPAC Subcommittee on Gas Kinetic Data Evaluation
! Data Sheet P1, updated 16th May 2002
! Website: http://www.iupac-kinetic.ch.cam.ac.uk/
! Quantum yields for H + HCO production at 298 K
!
! These are 1 nm bins centered on the wavelength. With
! 1 nm resolution they can be used as point values.
!
0.28400  4.2600E-20  6.7665E-01
0.28500  4.0500E-20  6.9125E-01
0.28600  2.1000E-20  7.0585E-01
0.28700  1.1500E-20  7.2045E-01
0.28800  3.1700E-20  7.3505E-01
0.28900  3.2200E-20  7.4340E-01
0.29000  1.1700E-20  7.3300E-01
0.29100  1.8400E-20  7.2260E-01
0.29200  7.9700E-21  7.1220E-01
0.29300  3.1300E-20  7.0180E-01
0.29400  7.1500E-20  6.9140E-01
0.29500  4.0500E-20  6.8100E-01
0.29600  2.4700E-20  6.7060E-01
0.29700  1.3700E-20  6.6020E-01
0.29800  4.2200E-20  6.4980E-01
0.29900  3.1700E-20  6.5030E-01
0.30000  9.6400E-21  6.8350E-01
0.30100  1.6200E-20  7.1670E-01
0.30200  8.5400E-21  7.4150E-01
0.30300  3.0200E-20  7.6350E-01
0.30400  7.2200E-20  7.7040E-01
0.30500  4.7500E-20  7.3200E-01
0.30600  4.2900E-20  6.9360E-01
0.30700  1.7800E-20  6.9930E-01
0.30800  1.3800E-20  7.1970E-01
0.30900  3.2500E-20  7.3190E-01
0.31000  1.7400E-20  7.1950E-01
0.31100  4.6200E-21  7.0710E-01
0.31200  1.1900E-20  7.0730E-01
0.31300  9.0600E-21  7.1170E-01
0.31400  5.6400E-20  7.1080E-01
0.31500  5.5700E-20  6.9400E-01
0.31600  2.5600E-20  6.7720E-01
0.31700  5.7800E-20  6.7150E-01
0.31800  3.1500E-20  6.6950E-01
0.31900  9.7800E-21  6.6750E-01
0.32000  1.1900E-20  6.6550E-01
0.32100  1.6000E-20  6.6350E-01
0.32200  7.2200E-21  6.4275E-01
0.32300  3.2800E-21  6.1575E-01
0.32400  8.5800E-21  5.8875E-01
0.32500  1.5800E-20  5.6175E-01
0.32600  6.8800E-20  5.3475E-01
0.32700  4.3700E-20  4.8150E-01
0.32800  1.2200E-20  4.1950E-01
0.32900  3.1200E-20  3.8330E-01
0.33000  3.8700E-20  4.2450E-01
0.33100  1.4100E-20  4.6570E-01
0.33200  3.4700E-21  4.2650E-01
0.33300  2.1400E-21  3.6050E-01
0.33400  1.5900E-21  2.8710E-01
0.33500  9.6700E-22  1.9150E-01
0.33600  1.2600E-21  9.5900E-02
0.33700  3.8300E-21  6.2700E-02
0.33800  1.9200E-20  5.0300E-02
0.33900  5.3800E-20  3.2800E-02
0.34000  3.1500E-20  0.0000E+00
